Sensor Model: 	RU-1000-BF0.007
Serial Number:	R10287
Data Format: 	4 	(Log Ohms/Kelvin)
SetPoint Limit: 	100.0 	(Kelvin)
Temperature coefficient: 	1 	(Negative)
Number of Breakpoints:		198

No. 	Units 	Temperature (K)

1	3.01579	102.000
2	3.02027	99.000
3	3.02401	96.500
4	3.02775	94.000
5	3.03034	91.500
6	3.03144	89.000
7	3.03284	86.500
8	3.03392	84.000
9	3.03539	81.500
10	3.03675	79.000
11	3.03797	76.500
12	3.03954	74.000
13	3.04101	71.500
14	3.04257	69.000
15	3.04386	67.000
16	3.04544	65.000
17	3.04670	63.000
18	3.04833	61.000
19	3.04982	59.000
20	3.05121	57.000
21	3.05276	55.000
22	3.05437	53.000
23	3.05677	51.000
24	3.05837	49.000
25	3.06013	47.200
26	3.06159	45.400
27	3.06351	43.600
28	3.06567	41.800
29	3.06794	39.900
30	3.07008	38.200
31	3.07204	36.500
32	3.07407	34.900
33	3.07661	33.300
34	3.07888	31.700
35	3.08146	30.200
36	3.08365	28.700
37	3.08639	27.200
38	3.08878	25.800
39	3.09146	24.500
40	3.09390	23.200
41	3.09693	21.900
42	3.09977	20.700
43	3.10178	19.800
44	3.10353	19.100
45	3.10583	18.400
46	3.10723	17.700
47	3.10907	17.050
48	3.11087	16.400
49	3.11366	15.750
50	3.11476	15.150
51	3.11680	14.550
52	3.11883	13.950
53	3.12080	13.400
54	3.12287	12.850
55	3.12608	12.300
56	3.12879	11.800
57	3.12994	11.300
58	3.13141	10.800
59	3.13345	10.300
60	3.13582	9.850
61	3.13819	9.400
62	3.14054	8.950
63	3.14259	8.550
64	3.14511	8.150
65	3.14774	7.750
66	3.15044	7.350
67	3.15602	6.950
68	3.15944	6.600
69	3.16088	6.250
70	3.16240	5.880
71	3.16379	5.540
72	3.16681	5.220
73	3.17188	4.920
74	3.17694	4.620
75	3.18200	4.320
76	3.18672	4.040
77	3.19027	3.830
78	3.19330	3.650
79	3.19634	3.470
80	3.19938	3.290
81	3.20224	3.120
82	3.20511	2.950
83	3.20781	2.790
84	3.21051	2.630
85	3.21304	2.480
86	3.21557	2.330
87	3.21794	2.190
88	3.22030	2.050
89	3.22315	1.920
90	3.22836	1.790
91	3.23169	1.670
92	3.23466	1.560
93	3.24174	1.450
94	3.25252	1.340
95	3.26277	1.240
96	3.26891	1.180
97	3.27352	1.135
98	3.27780	1.090
99	3.26457	1.045
100	3.26806	1.000
101	3.27100	0.960
102	3.27437	0.920
103	3.27773	0.880
104	3.28111	0.840
105	3.28473	0.800
106	3.28925	0.765
107	3.29378	0.730
108	3.29830	0.695
109	3.30282	0.660
110	3.30735	0.625
111	3.31122	0.595
112	3.31510	0.565
113	3.31972	0.535
114	3.32569	0.505
115	3.32961	0.482
116	3.33401	0.462
117	3.33955	0.442
118	3.34307	0.422
119	3.34765	0.404
120	3.35320	0.380
121	3.35628	0.360
122	3.36007	0.340
123	3.37130	0.320
124	3.37927	0.300
125	3.38783	0.280
126	3.39781	0.260
127	3.40979	0.240
128	3.42176	0.220
129	3.43374	0.200
130	3.43673	0.195
131	3.43972	0.190
132	3.44272	0.185
133	3.44571	0.180
134	3.44870	0.175
135	3.45170	0.170
136	3.45469	0.165
137	3.45768	0.160
138	3.46178	0.155
139	3.46632	0.150
140	3.47086	0.145
141	3.47604	0.140
142	3.48631	0.135
143	3.48928	0.130
144	3.49224	0.125
145	3.49785	0.120
146	3.50403	0.115
147	3.51025	0.110
148	3.51726	0.105
149	3.52491	0.100
150	3.53268	0.095
151	3.54078	0.090
152	3.55778	0.085
153	3.56271	0.080
154	3.57170	0.075
155	3.58023	0.070
156	3.59435	0.065
157	3.60830	0.060
158	3.62258	0.055
159	3.63884	0.050
160	3.64542	0.048
161	3.64931	0.047
162	3.65670	0.045
163	3.66031	0.044
164	3.66941	0.042
165	3.67871	0.040
166	3.68336	0.039
167	3.68801	0.038
168	3.69266	0.037
169	3.69731	0.036
170	3.70185	0.035
171	3.70758	0.034
172	3.71429	0.033
173	3.71744	0.032
174	3.72214	0.031
175	3.72731	0.030
176	3.73303	0.029
177	3.73875	0.028
178	3.74448	0.027
179	3.75020	0.026
180	3.75593	0.025
181	3.76165	0.024
182	3.76738	0.023
183	3.77310	0.022
184	3.77882	0.021
185	3.78455	0.020
186	3.79027	0.019
187	3.79600	0.018
188	3.80172	0.017
189	3.80744	0.016
190	3.81517	0.015
191	3.83235	0.014
192	3.84952	0.013
193	3.86669	0.012
194	3.88386	0.011
195	3.90103	0.010
196	3.91820	0.009
197	3.93209	0.008
198	3.93884	0.007
